#N canvas 492 23 433 500 10;
#X floatatom 151 129 5 0 0 0 - - -;
#X floatatom 214 132 5 0 0 0 - - -;
#X obj 151 201 nbx 5 14 -1e+37 1e+37 0 0 empty empty empty 0 -8 0 10
-228856 -1 -1 0 256;
#X text 214 114 Hertz;
#X text 150 109 phon;
#X obj 86 40 phon2db;
#X text 232 164 argument (hz);
#X text 143 30 convert phons to dB \, it takes a Hz value (right inlet
or argument) and a value in Phons (left inlet), f 35;
#X obj 151 166 phon2db 100;
#X text 32 276 The unit measure of loudess (perceived intensity) is
phons. Two different frequencies at 60 decibel may have a different
loudness because the human hearing sensitivity varies with frequency.
, f 61;
#X text 32 250 Phons:;
#X text 32 374 It is useful to plot equal loudness curves which show
that variation for the average human ear. These can then be used to
adjust the sound gain.;
#N canvas 342 66 1063 613 equal-loudness-curves 0;
#X obj 4 5 cnv 15 1050 600 empty empty Robinson_&_Dadson(1956) 130
60 0 25 -228856 -41803 0;
#X obj 42 126 cnv 15 698 398 empty empty Phon-Curves 23 26 0 24 -146353
-1665 0;
#N canvas 0 22 450 300 (subpatch) 0;
#X array dbA-0 759 float 3;
#A 0 51.655 51.5538 51.4521 51.3498 51.2468 51.1432 51.039 50.9341
50.8287 50.7226 50.6158 50.5085 50.4005 50.2919 50.1827 50.0728 49.9623
49.8512 49.7394 49.6271 49.5141 49.4004 49.2862 49.1713 49.0558 48.9396
48.8229 48.7055 48.5874 48.4688 48.3495 48.2296 48.1091 47.988 47.8662
47.7438 47.6208 47.4972 47.3729 47.2481 47.1226 46.9965 46.8698 46.7425
46.6146 46.4861 46.357 46.2272 46.0969 45.966 45.8344 45.7023 45.5696
45.4363 45.3024 45.1679 45.0328 44.8971 44.7609 44.6241 44.4867 44.3487
44.2101 44.071 43.9314 43.7912 43.6504 43.509 43.3671 43.2247 43.0817
42.9382 42.7941 42.6495 42.5044 42.3587 42.2125 42.0658 41.9186 41.7708
41.6226 41.4738 41.3246 41.1748 41.0246 40.8739 40.7227 40.571 40.4188
40.2662 40.1131 39.9596 39.8056 39.6511 39.4962 39.3408 39.1851 39.0289
38.8722 38.7152 38.5577 38.3998 38.2415 38.0828 37.9237 37.7643 37.6044
37.4442 37.2836 37.1226 36.9613 36.7996 36.6376 36.4752 36.3125 36.1495
35.9861 35.8224 35.6584 35.4941 35.3295 35.1646 34.9995 34.834 34.6683
34.5023 34.336 34.1695 34.0027 33.8357 33.6684 33.501 33.3333 33.1654
32.9972 32.8289 32.6604 32.4917 32.3228 32.1537 31.9844 31.815 31.6455
31.4758 31.3059 31.1359 30.9658 30.7956 30.6253 30.4548 30.2843 30.1136
29.9429 29.7721 29.6012 29.4302 29.2592 29.0882 28.9171 28.7459 28.5747
28.4035 28.2323 28.0611 27.8899 27.7187 27.5474 27.3763 27.2051 27.034
26.8629 26.6918 26.5208 26.3499 26.179 26.0082 25.8375 25.6669 25.4963
25.3259 25.1556 24.9854 24.8153 24.6453 24.4754 24.3057 24.1362 23.9668
23.7976 23.6285 23.4596 23.2909 23.1223 22.954 22.7858 22.6179 22.4502
22.2827 22.1154 21.9483 21.7815 21.6149 21.4486 21.2825 21.1166 20.9511
20.7858 20.6208 20.456 20.2916 20.1275 19.9636 19.8001 19.6369 19.474
19.3114 19.1491 18.9872 18.8256 18.6644 18.5035 18.3429 18.1828 18.023
17.8635 17.7045 17.5458 17.3875 17.2296 17.0721 16.915 16.7583 16.602
16.4461 16.2907 16.1357 15.9811 15.827 15.6733 15.52 15.3672 15.2148
15.0629 14.9115 14.7606 14.6101 14.4601 14.3106 14.1615 14.013 13.865
13.7174 13.5704 13.4239 13.2779 13.1324 12.9874 12.843 12.6991 12.5558
12.413 12.2707 12.129 11.9879 11.8473 11.7072 11.5678 11.4289 11.2906
11.1529 11.0158 10.8793 10.7434 10.6081 10.4734 10.3393 10.2058 10.073
9.94079 9.80922 9.67829 9.548 9.41837 9.2894 9.16109 9.03346 8.90649
8.78019 8.65459 8.52968 8.40547 8.28196 8.15916 8.03708 7.91571 7.79509
7.67519 7.55602 7.43761 7.31996 7.20307 7.08693 6.97159 6.85702 6.74324
6.63026 6.51809 6.40673 6.29617 6.18646 6.07757 5.96953 5.86233 5.756
5.65052 5.54593 5.44222 5.3394 5.23748 5.13647 5.03637 4.9372 4.83897
4.74167 4.64533 4.54994 4.45554 4.3621 4.26966 4.17821 4.08777 3.99833
3.90993 3.82256 3.73623 3.65096 3.56674 3.48359 3.40152 3.32054 3.24066
3.16188 3.08422 3.00768 2.93226 2.858 2.78488 2.71292 2.64213 2.57251
2.50406 2.43682 2.37075 2.3059 2.24226 2.17984 2.11864 2.05867 1.99993
1.94244 1.88619 1.8312 1.77746 1.72498 1.67377 1.62384 1.57517 1.52777
1.48166 1.43683 1.39326 1.35099 1.30999 1.27027 1.23184 1.19469 1.15881
1.12421 1.09088 1.05882 1.02802 0.998483 0.970199 0.943163 0.91737
0.8928 0.869462 0.847338 0.826416 0.806693 0.788158 0.770794 0.754581
0.739518 0.725587 0.712779 0.701062 0.690424 0.680861 0.67234 0.664846
0.658359 0.652867 0.64834 0.644747 0.642082 0.640312 0.639407 0.639358
0.640117 0.641679 0.644002 0.647062 0.650826 0.655257 0.660347 0.666045
0.672325 0.679149 0.6865 0.694319 0.702592 0.711282 0.720327 0.729731
0.739438 0.749399 0.759577 0.769961 0.780488 0.79113 0.801847 0.812587
0.823309 0.834003 0.844583 0.855062 0.865357 0.875431 0.885267 0.894816
0.904023 0.912853 0.921274 0.929229 0.936701 0.943634 0.949982 0.955727
0.960809 0.965211 0.96886 0.971752 0.973828 0.975077 0.975423 0.974867
0.973351 0.970862 0.967342 0.962761 0.957112 0.950341 0.94241 0.933319
0.923018 0.911484 0.898691 0.884616 0.869219 0.852502 0.834431 0.814969
0.794128 0.771863 0.748164 0.723034 0.696415 0.668331 0.638762 0.607683
0.575094 0.54099 0.505346 0.468176 0.429468 0.389217 0.347436 0.304092
0.259217 0.212802 0.164841 0.11535 0.0643365 0.011802 -0.0422483 -0.097794
-0.154822 -0.213331 -0.273308 -0.334722 -0.397568 -0.461828 -0.52748
-0.594508 -0.662885 -0.732592 -0.803613 -0.875914 -0.949468 -1.02425
-1.10024 -1.17741 -1.25571 -1.33512 -1.41564 -1.49717 -1.57975 -1.6633
-1.74779 -1.83321 -1.91949 -2.00662 -2.09455 -2.18322 -2.27263 -2.36272
-2.45344 -2.54477 -2.63665 -2.72905 -2.82191 -2.91521 -3.00887 -3.10287
-3.19716 -3.29169 -3.3864 -3.48126 -3.5762 -3.67118 -3.76614 -3.86104
-3.95581 -4.0504 -4.14477 -4.23883 -4.33254 -4.42583 -4.51864 -4.61091
-4.70255 -4.79353 -4.88374 -4.97314 -5.06162 -5.14914 -5.23558 -5.32089
-5.40497 -5.48773 -5.56908 -5.64893 -5.72717 -5.8037 -5.87842 -5.95122
-6.02197 -6.09058 -6.15691 -6.22084 -6.28225 -6.34099 -6.39693 -6.44993
-6.49984 -6.5465 -6.58978 -6.62949 -6.6655 -6.69763 -6.72572 -6.74956
-6.76902 -6.78389 -6.79401 -6.79919 -6.79923 -6.79396 -6.78319 -6.76671
-6.74436 -6.71595 -6.68127 -6.64013 -6.59239 -6.53783 -6.47629 -6.40762
-6.33161 -6.24812 -6.15701 -6.0581 -5.95129 -5.83643 -5.71342 -5.58213
-5.44248 -5.29439 -5.1378 -4.97265 -4.79888 -4.61651 -4.42551 -4.22589
-4.0177 -3.80099 -3.57584 -3.34234 -3.10058 -2.85073 -2.59293 -2.3274
-2.05433 -1.77391 -1.48647 -1.19221 -0.891541 -0.584695 -0.272084 0.0459052
0.368915 0.696455 1.02811 1.36339 1.70176 2.04275 2.3858 2.73035 3.0758
3.42156 3.76699 4.11152 4.45443 4.79513 5.13293 5.46715 5.79717 6.12224
6.44172 6.75493 7.06122 7.35992 7.65034 7.93189 8.20389 8.46576 8.71695
8.95685 9.18494 9.40065 9.60358 9.79324 9.96922 10.1311 10.2787 10.4115
10.5294 10.6322 10.7197 10.7918 10.8484 10.8897 10.9155 10.9262 10.9218
10.9025 10.8688 10.821 10.7596 10.685 10.5979 10.499 10.389 10.2688
10.1393 10.0014 9.85645 9.70547 9.54982 9.39087 9.23013 9.0692 8.90976
8.75362 8.60271 8.45904 8.32466 8.20176 8.0926 7.99946 7.92468 7.8706
7.83954 7.83371 7.8553 7.90629 7.98842 8.10321 8.25181 8.43503 8.65315
8.90601 9.19289 9.51253 9.86298 10.2418 10.6462 11.0727 11.5174 11.9765
12.4456 12.9205 13.3972 13.8716 14.3401 14.7997 15.2476 15.6816 16.1001
16.502 16.8869 17.2546 17.6056 17.9407 18.2611 18.5682 18.8637 19.1495
19.4274 19.6996 19.9681 20.235 20.5025 20.7726 21.0475 21.3289 21.6191
21.9197 22.2327 22.5598 22.9029 23.2637 23.6438 24.045 24.4688 24.917
25.3911 26.4242;
#X array dbA-20 759 float 5;
#A 0 63.0693 62.9728 62.8757 62.7781 62.6798 62.581 62.4816 62.3817
62.2811 62.18 62.0783 61.976 61.8732 61.7698 61.6658 61.5612 61.456
61.3503 61.244 61.1371 61.0297 60.9216 60.813 60.7039 60.5941 60.4838
60.373 60.2615 60.1495 60.0369 59.9238 59.8101 59.6959 59.581 59.4656
59.3497 59.2332 59.1162 58.9986 58.8804 58.7617 58.6425 58.5227 58.4024
58.2815 58.1601 58.0381 57.9157 57.7927 57.6691 57.5451 57.4205 57.2954
57.1698 57.0436 56.917 56.7898 56.6621 56.534 56.4053 56.2762 56.1465
56.0163 55.8857 55.7546 55.623 55.491 55.3584 55.2254 55.0919 54.958
54.8236 54.6888 54.5535 54.4178 54.2816 54.145 54.008 53.8706 53.7327
53.5944 53.4557 53.3166 53.1771 53.0372 52.8969 52.7562 52.6151 52.4737
52.3319 52.1897 52.0471 51.9042 51.761 51.6174 51.4734 51.3292 51.1846
51.0397 50.8944 50.7489 50.603 50.4569 50.3104 50.1637 50.0167 49.8694
49.7219 49.5741 49.426 49.2777 49.1291 48.9803 48.8313 48.682 48.5325
48.3828 48.2329 48.0828 47.9326 47.7821 47.6314 47.4806 47.3296 47.1785
47.0272 46.8757 46.7242 46.5724 46.4206 46.2686 46.1166 45.9644 45.8121
45.6598 45.5073 45.3548 45.2022 45.0496 44.8969 44.7441 44.5913 44.4385
44.2856 44.1328 43.9799 43.827 43.6741 43.5212 43.3683 43.2155 43.0627
42.9099 42.7571 42.6044 42.4518 42.2992 42.1467 41.9943 41.8419 41.6896
41.5375 41.3854 41.2335 41.0817 40.9299 40.7784 40.6269 40.4756 40.3245
40.1735 40.0227 39.8721 39.7216 39.5713 39.4212 39.2713 39.1216 38.9721
38.8228 38.6738 38.5249 38.3763 38.228 38.0799 37.932 37.7844 37.6371
37.49 37.3432 37.1967 37.0505 36.9046 36.7589 36.6136 36.4686 36.3239
36.1795 36.0354 35.8917 35.7483 35.6053 35.4626 35.3202 35.1782 35.0366
34.8953 34.7544 34.6139 34.4737 34.334 34.1946 34.0556 33.9171 33.7789
33.6411 33.5038 33.3668 33.2303 33.0942 32.9586 32.8233 32.6885 32.5542
32.4203 32.2868 32.1538 32.0212 31.8892 31.7575 31.6264 31.4957 31.3654
31.2357 31.1064 30.9776 30.8493 30.7215 30.5942 30.4674 30.3411 30.2152
30.0899 29.9651 29.8408 29.717 29.5937 29.471 29.3487 29.227 29.1058
28.9851 28.865 28.7454 28.6263 28.5078 28.3898 28.2723 28.1554 28.0391
27.9233 27.808 27.6933 27.5791 27.4655 27.3525 27.24 27.1281 27.0168
26.906 26.7958 26.6862 26.5771 26.4686 26.3607 26.2534 26.1466 26.0405
25.9349 25.83 25.7256 25.6218 25.5186 25.416 25.314 25.2127 25.1119
25.0117 24.9122 24.8133 24.715 24.6173 24.5202 24.4238 24.328 24.2329
24.1384 24.0445 23.9513 23.8587 23.7668 23.6755 23.585 23.495 23.4058
23.3172 23.2294 23.1422 23.0557 22.9699 22.8848 22.8004 22.7168 22.6338
22.5516 22.4701 22.3894 22.3094 22.2302 22.1517 22.0741 21.9972 21.921
21.8457 21.7712 21.6975 21.6246 21.5526 21.4813 21.411 21.3415 21.2728
21.2051 21.1382 21.0722 21.0072 20.943 20.8798 20.8176 20.7563 20.6959
20.6366 20.5782 20.5208 20.4644 20.4091 20.3548 20.3015 20.2494 20.1983
20.1482 20.0993 20.0515 20.0048 19.9593 19.9149 19.8717 19.8296 19.7888
19.7491 19.7107 19.6735 19.6375 19.6028 19.5694 19.5372 19.5063 19.4767
19.4484 19.4214 19.3958 19.3715 19.3485 19.3269 19.3067 19.2878 19.2703
19.2542 19.2395 19.2262 19.2143 19.2038 19.1947 19.187 19.1807 19.1758
19.1724 19.1703 19.1697 19.1705 19.1726 19.1762 19.1812 19.1875 19.1953
19.2044 19.2149 19.2267 19.2398 19.2543 19.2701 19.2871 19.3055 19.3251
19.3459 19.368 19.3912 19.4156 19.4411 19.4678 19.4956 19.5244 19.5542
19.585 19.6168 19.6495 19.6832 19.7176 19.7529 19.789 19.8258 19.8633
19.9014 19.9401 19.9794 20.0193 20.0596 20.1003 20.1413 20.1827 20.2243
20.2662 20.3082 20.3503 20.3925 20.4347 20.4767 20.5187 20.5605 20.6021
20.6433 20.6842 20.7248 20.7648 20.8043 20.8432 20.8815 20.919 20.9558
20.9918 21.0269 21.061 21.0942 21.1263 21.1573 21.1871 21.2157 21.2431
21.2691 21.2938 21.317 21.3387 21.3589 21.3776 21.3946 21.41 21.4237
21.4356 21.4458 21.4542 21.4606 21.4652 21.4679 21.4687 21.4674 21.4642
21.4589 21.4515 21.4421 21.4306 21.417 21.4013 21.3835 21.3635 21.3414
21.3171 21.2906 21.2621 21.2313 21.1984 21.1634 21.1262 21.0869 21.0455
21.0021 20.9565 20.9089 20.8592 20.8076 20.7539 20.6983 20.6407 20.5813
20.52 20.4569 20.3919 20.3252 20.2569 20.1868 20.1151 20.0418 19.967
19.8906 19.8129 19.7337 19.6532 19.5714 19.4884 19.4041 19.3188 19.2323
19.1448 19.0564 18.967 18.8768 18.7858 18.6941 18.6016 18.5086 18.415
18.3209 18.2263 18.1313 18.0361 17.9405 17.8447 17.7488 17.6528 17.5567
17.4607 17.3647 17.2689 17.1733 17.0779 16.9829 16.8882 16.7939 16.7002
16.607 16.5143 16.4224 16.3312 16.2408 16.1512 16.0625 15.9748 15.8882
15.8026 15.7183 15.6351 15.5533 15.4728 15.3938 15.3164 15.2406 15.1664
15.0941 15.0236 14.9551 14.8886 14.8243 14.7623 14.7026 14.6454 14.5908
14.539 14.49 14.4439 14.401 14.3614 14.3252 14.2925 14.2636 14.2385
14.2175 14.2008 14.1884 14.1807 14.1778 14.1798 14.1871 14.1997 14.218
14.242 14.2721 14.3085 14.3513 14.4007 14.4571 14.5206 14.5915 14.6699
14.756 14.8501 14.9524 15.0631 15.1823 15.3102 15.447 15.5929 15.748
15.9125 16.0863 16.2698 16.4628 16.6656 16.878 17.1003 17.3322 17.5739
17.8253 18.0862 18.3565 18.6362 18.925 19.2228 19.5292 19.844 20.167
20.4977 20.8358 21.1808 21.5324 21.8899 22.253 22.621 22.9934 23.3696
23.7487 24.1303 24.5135 24.8978 25.2821 25.6658 26.048 26.4279 26.8048
27.1777 27.5457 27.9079 28.2636 28.6118 28.9516 29.2823 29.6028 29.9124
30.2104 30.4958 30.7679 31.026 31.2694 31.4974 31.7094 31.9047 32.083
32.2436 32.3861 32.5103 32.6156 32.702 32.7692 32.817 32.8454 32.8545
32.8442 32.8147 32.7663 32.6992 32.6138 32.5106 32.39 32.2527 32.0993
31.9306 31.7474 31.5507 31.3415 31.121 30.8902 30.6506 30.4035 30.1505
29.8932 29.6335 29.3731 29.1143 28.859 28.6097 28.369 28.1393 27.9235
27.7246 27.5456 27.3897 27.26 27.1598 27.0922 27.0602 27.0664 27.1132
27.2024 27.3351 27.5117 27.7316 27.9932 28.2937 28.6298 28.9966 29.3888
29.8003 30.2248 30.6557 31.0868 31.5123 31.9272 32.3273 32.7093 33.0711
33.4114 33.7299 34.0272 34.3044 34.5634 34.8061 35.0351 35.253 35.4625
35.6661 35.8667 36.0668 36.2688 36.475 36.6876 36.9088 37.1404 37.3842
37.6421 37.9154 38.2059 38.515 38.8441 39.1945 39.5677 39.965 40.3877
40.8372 41.3148 41.8219 42.9307;
#X array dbA-40 759 float 5;
#A 0 74.8762 74.7886 74.7006 74.6121 74.523 74.4334 74.3434 74.2528
74.1617 74.0701 73.978 73.8853 73.7922 73.6986 73.6044 73.5098 73.4146
73.319 73.2228 73.1261 73.029 72.9313 72.8331 72.7344 72.6353 72.5356
72.4354 72.3347 72.2336 72.1319 72.0298 71.9272 71.8241 71.7205 71.6164
71.5118 71.4067 71.3012 71.1952 71.0887 70.9818 70.8744 70.7665 70.6581
70.5493 70.44 70.3303 70.2201 70.1095 69.9984 69.8868 69.7748 69.6624
69.5495 69.4362 69.3225 69.2083 69.0938 68.9787 68.8633 68.7475 68.6312
68.5145 68.3975 68.28 68.1621 68.0439 67.9252 67.8062 67.6868 67.567
67.4468 67.3263 67.2054 67.0841 66.9625 66.8405 66.7182 66.5956 66.4726
66.3493 66.2256 66.1016 65.9773 65.8527 65.7278 65.6026 65.4771 65.3513
65.2252 65.0988 64.9722 64.8452 64.718 64.5906 64.4629 64.3349 64.2067
64.0783 63.9496 63.8207 63.6916 63.5623 63.4328 63.303 63.1731 63.0429
62.9126 62.7821 62.6515 62.5206 62.3896 62.2585 62.1272 61.9957 61.8642
61.7325 61.6006 61.4687 61.3366 61.2045 61.0722 60.9399 60.8074 60.6749
60.5424 60.4097 60.277 60.1443 60.0115 59.8786 59.7457 59.6128 59.4799
59.347 59.2141 59.0811 58.9482 58.8153 58.6824 58.5495 58.4167 58.2839
58.1511 58.0184 57.8858 57.7532 57.6207 57.4883 57.356 57.2237 57.0916
56.9595 56.8276 56.6958 56.5641 56.4326 56.3011 56.1699 56.0387 55.9077
55.7769 55.6463 55.5158 55.3855 55.2554 55.1255 54.9958 54.8663 54.7369
54.6079 54.479 54.3503 54.2219 54.0938 53.9658 53.8381 53.7107 53.5836
53.4566 53.33 53.2037 53.0776 52.9518 52.8263 52.7011 52.5762 52.4516
52.3274 52.2034 52.0798 51.9565 51.8335 51.7109 51.5886 51.4666 51.345
51.2238 51.1029 50.9824 50.8622 50.7425 50.6231 50.504 50.3854 50.2671
50.1493 50.0318 49.9148 49.7981 49.6818 49.566 49.4506 49.3356 49.221
49.1068 48.9931 48.8798 48.7669 48.6545 48.5425 48.4309 48.3198 48.2091
48.0989 47.9892 47.8799 47.7711 47.6627 47.5548 47.4473 47.3404 47.2339
47.1278 47.0223 46.9172 46.8126 46.7085 46.6049 46.5017 46.3991 46.2969
46.1952 46.0941 45.9934 45.8932 45.7935 45.6943 45.5956 45.4974 45.3997
45.3025 45.2059 45.1097 45.014 44.9189 44.8243 44.7301 44.6365 44.5434
44.4508 44.3588 44.2672 44.1762 44.0857 43.9957 43.9062 43.8172 43.7288
43.6409 43.5535 43.4667 43.3803 43.2945 43.2093 43.1245 43.0403 42.9566
42.8735 42.7909 42.7088 42.6273 42.5462 42.4658 42.3858 42.3065 42.2276
42.1493 42.0716 41.9944 41.9177 41.8416 41.7661 41.6911 41.6166 41.5427
41.4694 41.3967 41.3245 41.2529 41.1818 41.1113 41.0414 40.9721 40.9034
40.8353 40.7677 40.7008 40.6344 40.5687 40.5035 40.439 40.3751 40.3118
40.2491 40.1871 40.1257 40.065 40.0049 39.9455 39.8867 39.8286 39.7712
39.7145 39.6585 39.6032 39.5485 39.4947 39.4415 39.3891 39.3374 39.2865
39.2363 39.1869 39.1383 39.0905 39.0435 38.9974 38.952 38.9075 38.8639
38.8211 38.7792 38.7382 38.6981 38.6589 38.6207 38.5834 38.5471 38.5117
38.4773 38.444 38.4116 38.3803 38.3501 38.3208 38.2927 38.2657 38.2398
38.215 38.1913 38.1688 38.1474 38.1273 38.1083 38.0906 38.0741 38.0588
38.0448 38.032 38.0205 38.0104 38.0015 37.994 37.9878 37.9829 37.9794
37.9773 37.9766 37.9772 37.9792 37.9827 37.9875 37.9938 38.0015 38.0106
38.0212 38.0332 38.0466 38.0615 38.0778 38.0956 38.1148 38.1354 38.1575
38.181 38.2058 38.2321 38.2598 38.2889 38.3194 38.3512 38.3844 38.4189
38.4547 38.4917 38.5301 38.5697 38.6105 38.6525 38.6957 38.74 38.7854
38.8318 38.8793 38.9278 38.9773 39.0277 39.079 39.1311 39.184 39.2376
39.2919 39.3469 39.4025 39.4586 39.5153 39.5723 39.6298 39.6876 39.7456
39.8039 39.8623 39.9208 39.9793 40.0378 40.0961 40.1543 40.2123 40.27
40.3273 40.3841 40.4405 40.4963 40.5514 40.6058 40.6595 40.7123 40.7642
40.8152 40.865 40.9138 40.9614 41.0077 41.0527 41.0964 41.1386 41.1793
41.2185 41.256 41.2918 41.326 41.3583 41.3888 41.4173 41.444 41.4686
41.4912 41.5118 41.5302 41.5464 41.5604 41.5722 41.5817 41.5889 41.5938
41.5963 41.5965 41.5942 41.5895 41.5824 41.5729 41.5609 41.5464 41.5295
41.5101 41.4882 41.4639 41.4371 41.4079 41.3762 41.3422 41.3057 41.2668
41.2256 41.1821 41.1362 41.0881 41.0378 40.9852 40.9305 40.8736 40.8147
40.7537 40.6907 40.6258 40.559 40.4903 40.4198 40.3476 40.2737 40.1982
40.1211 40.0426 39.9625 39.8811 39.7984 39.7144 39.6292 39.5429 39.4556
39.3672 39.2779 39.1878 39.0968 39.0052 38.9128 38.8199 38.7265 38.6326
38.5383 38.4437 38.3488 38.2537 38.1585 38.0633 37.968 37.8727 37.7776
37.6827 37.588 37.4936 37.3996 37.3059 37.2128 37.1201 37.028 36.9366
36.8459 36.7558 36.6666 36.5782 36.4907 36.4041 36.3185 36.234 36.1505
36.0682 35.9871 35.9072 35.8286 35.7513 35.6754 35.6009 35.528 35.4566
35.3868 35.3187 35.2523 35.1877 35.125 35.0642 35.0053 34.9486 34.894
34.8417 34.7917 34.7441 34.699 34.6565 34.6168 34.5798 34.5459 34.5149
34.4872 34.4628 34.4419 34.4245 34.411 34.4013 34.3958 34.3944 34.3975
34.4052 34.4177 34.4351 34.4577 34.4857 34.5192 34.5585 34.6037 34.6551
34.7129 34.7773 34.8485 34.9267 35.0121 35.105 35.2054 35.3136 35.4298
35.5541 35.6867 35.8279 35.9775 36.1359 36.3032 36.4793 36.6644 36.8586
37.0618 37.274 37.4953 37.7256 37.9647 38.2126 38.4692 38.7342 39.0074
39.2887 39.5776 39.874 40.1774 40.4874 40.8036 41.1255 41.4526 41.7845
42.1203 42.4597 42.8019 43.1462 43.4918 43.8382 44.1845 44.5298 44.8734
45.2145 45.5521 45.8855 46.2137 46.5359 46.8512 47.1588 47.4576 47.747
48.0261 48.2941 48.5501 48.7934 49.0232 49.2388 49.4397 49.6251 49.7945
49.9474 50.0832 50.2016 50.3022 50.3847 50.4488 50.4944 50.5214 50.5297
50.5193 50.4903 50.4429 50.3773 50.2937 50.1925 50.0741 49.9391 49.7879
49.6211 49.4395 49.2437 49.0346 48.813 48.5799 48.3363 48.0831 47.8217
47.5531 47.2788 47.0002 46.7187 46.4361 46.1541 45.8748 45.6003 45.333
45.0756 44.8308 44.6019 44.3924 44.2061 44.0469 43.9192 43.8274 43.7759
43.7687 43.8097 43.9016 44.0461 44.2434 44.4918 44.7874 45.1244 45.4949
45.8896 46.2983 46.7103 47.1161 47.5069 47.876 48.2186 48.532 48.8153
49.0694 49.2965 49.4998 49.6827 49.8493 50.0035 50.1492 50.29 50.4295
50.5706 50.7161 50.8685 51.0299 51.2023 51.3874 51.5868 51.8018 52.0338
52.2838 52.5531 52.8426 53.1533 53.4864 53.8428 54.2236 54.6297 55.0622
55.5223 56.011 56.5297 57.6622;
#X array dbA-60 759 float 5;
#A 0 87.0584 86.9825 86.9062 86.8294 86.7522 86.6746 86.5965 86.518
86.4391 86.3597 86.2798 86.1996 86.1189 86.0377 85.9562 85.8741 85.7917
85.7088 85.6255 85.5417 85.4576 85.3729 85.2879 85.2024 85.1165 85.0302
84.9434 84.8563 84.7687 84.6806 84.5922 84.5033 84.414 84.3243 84.2342
84.1437 84.0527 83.9614 83.8696 83.7775 83.6849 83.5919 83.4986 83.4048
83.3106 83.2161 83.1211 83.0258 82.9301 82.834 82.7375 82.6406 82.5434
82.4458 82.3478 82.2494 82.1507 82.0516 81.9522 81.8524 81.7522 81.6517
81.5509 81.4497 81.3482 81.2463 81.1441 81.0416 80.9387 80.8356 80.7321
80.6283 80.5241 80.4197 80.315 80.21 80.1046 79.999 79.8931 79.7869
79.6805 79.5737 79.4667 79.3595 79.2519 79.1441 79.0361 78.9278 78.8193
78.7105 78.6015 78.4923 78.3828 78.2731 78.1632 78.0531 77.9428 77.8323
77.7216 77.6107 77.4996 77.3884 77.2769 77.1653 77.0536 76.9416 76.8296
76.7173 76.605 76.4925 76.3798 76.267 76.1542 76.0412 75.9281 75.8148
75.7015 75.5881 75.4746 75.361 75.2474 75.1337 75.0199 74.906 74.7921
74.6782 74.5641 74.4501 74.3361 74.222 74.1079 73.9937 73.8796 73.7655
73.6513 73.5372 73.4231 73.309 73.195 73.0809 72.9669 72.853 72.7391
72.6252 72.5115 72.3977 72.2841 72.1705 72.057 71.9436 71.8303 71.7171
71.604 71.491 71.3782 71.2654 71.1528 71.0403 70.928 70.8157 70.7037
70.5918 70.48 70.3685 70.257 70.1458 70.0348 69.9239 69.8132 69.7027
69.5924 69.4824 69.3725 69.2628 69.1534 69.0442 68.9352 68.8265 68.718
68.6097 68.5017 68.394 68.2865 68.1792 68.0723 67.9656 67.8592 67.753
67.6472 67.5416 67.4363 67.3313 67.2267 67.1223 67.0182 66.9145 66.811
66.7079 66.6051 66.5026 66.4005 66.2987 66.1972 66.0961 65.9953 65.8949
65.7948 65.6951 65.5957 65.4967 65.3981 65.2998 65.2019 65.1043 65.0072
64.9104 64.814 64.718 64.6224 64.5271 64.4323 64.3378 64.2437 64.1501
64.0568 63.9639 63.8715 63.7794 63.6878 63.5966 63.5057 63.4153 63.3253
63.2358 63.1466 63.0579 62.9696 62.8817 62.7943 62.7072 62.6206 62.5345
62.4487 62.3634 62.2786 62.1942 62.1102 62.0266 61.9435 61.8608 61.7786
61.6968 61.6155 61.5346 61.4541 61.3741 61.2946 61.2155 61.1368 61.0586
60.9808 60.9035 60.8267 60.7503 60.6743 60.5989 60.5238 60.4493 60.3752
60.3015 60.2283 60.1556 60.0833 60.0115 59.9402 59.8693 59.7989 59.729
59.6595 59.5905 59.522 59.4539 59.3863 59.3192 59.2526 59.1864 59.1208
59.0556 58.9909 58.9266 58.8629 58.7996 58.7369 58.6746 58.6129 58.5516
58.4908 58.4306 58.3708 58.3116 58.2529 58.1946 58.137 58.0798 58.0232
57.9671 57.9115 57.8565 57.802 57.7481 57.6948 57.642 57.5898 57.5381
57.487 57.4366 57.3867 57.3374 57.2887 57.2407 57.1933 57.1465 57.1003
57.0548 57.01 56.9658 56.9223 56.8795 56.8374 56.796 56.7554 56.7154
56.6762 56.6378 56.6001 56.5632 56.5271 56.4918 56.4573 56.4236 56.3909
56.3589 56.3278 56.2977 56.2684 56.24 56.2126 56.1861 56.1606 56.1361
56.1126 56.0901 56.0686 56.0482 56.0288 56.0105 55.9934 55.9773 55.9624
55.9486 55.936 55.9245 55.9143 55.9053 55.8975 55.891 55.8857 55.8817
55.8791 55.8777 55.8776 55.8789 55.8816 55.8856 55.891 55.8978 55.9059
55.9156 55.9266 55.939 55.953 55.9683 55.9851 56.0034 56.0232 56.0444
56.0671 56.0913 56.117 56.1441 56.1727 56.2028 56.2344 56.2674 56.3019
56.3378 56.3752 56.4139 56.4542 56.4958 56.5387 56.5831 56.6288 56.6758
56.7241 56.7736 56.8245 56.8765 56.9297 56.9841 57.0396 57.0962 57.1538
57.2125 57.2721 57.3326 57.394 57.4562 57.5193 57.583 57.6475 57.7126
57.7782 57.8444 57.911 57.978 58.0454 58.113 58.1809 58.2489 58.317
58.3851 58.4532 58.5211 58.5888 58.6563 58.7235 58.7902 58.8565 58.9222
58.9873 59.0516 59.1153 59.178 59.2399 59.3007 59.3605 59.4191 59.4765
59.5327 59.5875 59.6408 59.6927 59.743 59.7916 59.8386 59.8837 59.9271
59.9686 60.0081 60.0456 60.081 60.1143 60.1455 60.1744 60.201 60.2254
60.2473 60.2669 60.284 60.2987 60.3108 60.3204 60.3274 60.3318 60.3336
60.3328 60.3293 60.3232 60.3144 60.3029 60.2887 60.2718 60.2523 60.23
60.2051 60.1775 60.1473 60.1144 60.0789 60.0409 60.0002 59.9571 59.9114
59.8633 59.8127 59.7597 59.7044 59.6467 59.5869 59.5247 59.4604 59.3941
59.3256 59.2552 59.1828 59.1085 59.0324 58.9546 58.8751 58.7939 58.7112
58.627 58.5414 58.4544 58.3661 58.2767 58.1861 58.0945 58.0018 57.9083
57.8139 57.7187 57.6229 57.5264 57.4293 57.3318 57.2339 57.1356 57.0371
56.9384 56.8395 56.7406 56.6417 56.5428 56.4441 56.3456 56.2474 56.1495
56.0519 55.9548 55.8583 55.7622 55.6668 55.572 55.478 55.3847 55.2922
55.2006 55.1098 55.0201 54.9313 54.8436 54.757 54.6715 54.5872 54.504
54.4222 54.3416 54.2623 54.1844 54.1079 54.0329 53.9593 53.8873 53.8168
53.7479 53.6807 53.6152 53.5514 53.4894 53.4292 53.371 53.3146 53.2603
53.2081 53.1579 53.11 53.0643 53.021 52.9801 52.9417 52.9059 52.8728
52.8424 52.815 52.7906 52.7692 52.7512 52.7365 52.7253 52.7177 52.7139
52.714 52.7183 52.7267 52.7396 52.7571 52.7793 52.8065 52.8388 52.8763
52.9194 52.9682 53.0228 53.0835 53.1505 53.2239 53.3039 53.3908 53.4847
53.5857 53.694 53.8099 53.9334 54.0647 54.2039 54.351 54.5063 54.6698
54.8415 55.0214 55.2097 55.4062 55.6109 55.8237 56.0446 56.2735 56.5101
56.7543 57.0058 57.2645 57.5299 57.8018 58.0798 58.3634 58.6523 58.946
59.2439 59.5455 59.8502 60.1574 60.4665 60.7767 61.0873 61.3977 61.707
62.0145 62.3195 62.6209 62.9182 63.2105 63.4968 63.7765 64.0487 64.3125
64.5672 64.812 65.0461 65.2688 65.4794 65.6773 65.8617 66.0321 66.1879
66.3286 66.4538 66.563 66.6559 66.7323 66.7917 66.8342 66.8595 66.8677
66.8586 66.8325 66.7893 66.7294 66.6529 66.5602 66.4517 66.3278 66.1889
66.0357 65.8686 65.6884 65.4958 65.2914 65.0761 64.8507 64.6161 64.3732
64.1229 63.8664 63.6046 63.3387 63.0701 62.7999 62.5296 62.2608 61.9953
61.735 61.482 61.2389 61.0085 60.7938 60.5985 60.4267 60.2827 60.1714
60.0978 60.0667 60.0828 60.1497 60.2696 60.4426 60.6662 60.9351 61.2407
61.5725 61.9182 62.2652 62.6022 62.9196 63.2108 63.472 63.702 63.9022
64.0755 64.226 64.3581 64.4766 64.5861 64.6907 64.7943 64.9002 65.0113
65.13 65.2585 65.3987 65.5519 65.7197 65.9031 66.1032 66.3209 66.5573
66.8129 67.0888 67.3857 67.7043 68.0456 68.4105 68.7997 69.2142 69.6551
70.1233 70.62 71.1464 72.2934;
#X array dbA-80 759 float 5;
#A 0 100.533 100.47 100.407 100.343 100.279 100.214 100.15 100.084
100.019 99.9528 99.8865 99.8198 99.7527 99.6852 99.6174 99.5492 99.4806
99.4117 99.3424 99.2727 99.2026 99.1322 99.0614 98.9902 98.9186 98.8467
98.7744 98.7017 98.6287 98.5553 98.4815 98.4074 98.3329 98.258 98.1828
98.1072 98.0313 97.955 97.8783 97.8013 97.7239 97.6462 97.5681 97.4896
97.4108 97.3317 97.2522 97.1724 97.0922 97.0117 96.9308 96.8496 96.7681
96.6862 96.604 96.5215 96.4386 96.3554 96.2719 96.188 96.1039 96.0194
95.9346 95.8495 95.764 95.6783 95.5923 95.5059 95.4193 95.3323 95.2451
95.1575 95.0697 94.9815 94.8931 94.8044 94.7155 94.6262 94.5367 94.4469
94.3568 94.2665 94.1759 94.085 93.9939 93.9025 93.8109 93.7191 93.627
93.5346 93.4421 93.3493 93.2562 93.1629 93.0695 92.9758 92.8819 92.7877
92.6934 92.5989 92.5041 92.4092 92.3141 92.2188 92.1233 92.0276 91.9318
91.8357 91.7396 91.6432 91.5467 91.45 91.3532 91.2563 91.1592 91.0619
90.9645 90.867 90.7694 90.6717 90.5738 90.4758 90.3777 90.2795 90.1812
90.0829 89.9844 89.8858 89.7872 89.6885 89.5897 89.4908 89.3919 89.2929
89.1939 89.0948 88.9957 88.8965 88.7973 88.6981 88.5988 88.4995 88.4002
88.3009 88.2016 88.1022 88.0029 87.9036 87.8043 87.705 87.6057 87.5064
87.4072 87.308 87.2089 87.1097 87.0107 86.9117 86.8127 86.7138 86.615
86.5162 86.4175 86.3189 86.2203 86.1219 86.0235 85.9253 85.8271 85.729
85.6311 85.5332 85.4355 85.3379 85.2404 85.1431 85.0459 84.9488 84.8519
84.7551 84.6585 84.562 84.4657 84.3695 84.2735 84.1777 84.082 83.9866
83.8913 83.7962 83.7013 83.6066 83.512 83.4177 83.3236 83.2297 83.136
83.0425 82.9493 82.8562 82.7635 82.6709 82.5785 82.4864 82.3946 82.303
82.2116 82.1205 82.0296 81.939 81.8486 81.7586 81.6688 81.5792 81.4899
81.401 81.3122 81.2238 81.1357 81.0478 80.9603 80.873 80.786 80.6994
80.613 80.527 80.4412 80.3558 80.2707 80.1859 80.1014 80.0173 79.9335
79.85 79.7668 79.684 79.6015 79.5194 79.4376 79.3562 79.2751 79.1944
79.114 79.034 78.9544 78.8751 78.7962 78.7177 78.6395 78.5618 78.4844
78.4074 78.3307 78.2545 78.1787 78.1032 78.0282 77.9536 77.8794 77.8056
77.7322 77.6593 77.5867 77.5146 77.443 77.3717 77.301 77.2306 77.1607
77.0913 77.0223 76.9538 76.8858 76.8182 76.7511 76.6846 76.6184 76.5528
76.4877 76.4231 76.3591 76.2955 76.2325 76.17 76.108 76.0466 75.9857
75.9254 75.8657 75.8065 75.748 75.69 75.6326 75.5759 75.5197 75.4642
75.4093 75.355 75.3015 75.2485 75.1963 75.1447 75.0938 75.0437 74.9942
74.9455 74.8975 74.8502 74.8037 74.758 74.7131 74.669 74.6257 74.5832
74.5415 74.5007 74.4607 74.4217 74.3835 74.3462 74.3098 74.2744 74.2399
74.2064 74.1738 74.1423 74.1117 74.0822 74.0537 74.0262 73.9998 73.9745
73.9503 73.9273 73.9053 73.8845 73.8648 73.8464 73.8291 73.813 73.7982
73.7846 73.7722 73.7611 73.7513 73.7428 73.7356 73.7298 73.7252 73.7221
73.7203 73.7199 73.7208 73.7232 73.727 73.7323 73.739 73.7471 73.7567
73.7678 73.7803 73.7943 73.8099 73.8269 73.8454 73.8655 73.8871 73.9102
73.9348 73.961 73.9886 74.0179 74.0486 74.0808 74.1146 74.1499 74.1868
74.2251 74.2649 74.3062 74.349 74.3933 74.439 74.4862 74.5348 74.5848
74.6363 74.6891 74.7432 74.7987 74.8556 74.9137 74.973 75.0337 75.0955
75.1585 75.2226 75.2879 75.3543 75.4217 75.4901 75.5595 75.6298 75.701
75.773 75.8459 75.9195 75.9939 76.0688 76.1445 76.2206 76.2973 76.3745
76.452 76.53 76.6082 76.6866 76.7652 76.844 76.9228 77.0016 77.0804
77.159 77.2374 77.3156 77.3935 77.471 77.548 77.6245 77.7005 77.7758
77.8504 77.9242 77.9972 78.0692 78.1403 78.2103 78.2793 78.347 78.4135
78.4787 78.5425 78.6049 78.6658 78.7251 78.7828 78.8388 78.893 78.9455
78.996 79.0447 79.0914 79.1361 79.1786 79.2191 79.2574 79.2934 79.3271
79.3586 79.3877 79.4143 79.4386 79.4603 79.4796 79.4962 79.5104 79.5219
79.5307 79.5369 79.5405 79.5413 79.5394 79.5348 79.5274 79.5173 79.5045
79.4888 79.4704 79.4492 79.4252 79.3985 79.369 79.3368 79.3018 79.2641
79.2237 79.1806 79.1348 79.0863 79.0353 78.9817 78.9254 78.8667 78.8054
78.7417 78.6756 78.607 78.5361 78.4629 78.3875 78.3098 78.23 78.148
78.064 77.978 77.89 77.8001 77.7084 77.6149 77.5197 77.4228 77.3243
77.2242 77.1227 77.0198 76.9155 76.8099 76.7031 76.5951 76.486 76.376
76.2649 76.1529 76.0402 75.9267 75.8124 75.6976 75.5822 75.4663 75.3499
75.2332 75.1162 74.999 74.8816 74.7641 74.6465 74.529 74.4116 74.2943
74.1772 74.0603 73.9438 73.8277 73.712 73.5969 73.4823 73.3683 73.255
73.1424 73.0306 72.9197 72.8097 72.7007 72.5926 72.4857 72.3799 72.2753
72.1719 72.0699 71.9692 71.87 71.7724 71.6762 71.5817 71.489 71.398
71.3089 71.2217 71.1365 71.0535 70.9726 70.894 70.8178 70.744 70.6729
70.6043 70.5386 70.4758 70.4161 70.3595 70.3062 70.2563 70.21 70.1674
70.1286 70.0939 70.0634 70.0373 70.0157 69.9988 69.9869 69.98 69.9785
69.9824 69.992 70.0076 70.0292 70.0572 70.0918 70.133 70.1813 70.2367
70.2995 70.3699 70.4482 70.5344 70.6289 70.7317 70.8431 70.9633 71.0924
71.2305 71.3778 71.5344 71.7005 71.876 72.0612 72.2559 72.4603 72.6744
72.8981 73.1313 73.3741 73.6263 73.8877 74.1582 74.4376 74.7256 75.0221
75.3266 75.6388 75.9584 76.285 76.6181 76.9571 77.3017 77.6512 78.005
78.3625 78.7232 79.0861 79.4507 79.8161 80.1817 80.5466 80.91 81.2711
81.6289 81.9827 82.3316 82.6746 83.011 83.3398 83.6602 83.9713 84.2722
84.5622 84.8403 85.1059 85.3581 85.5962 85.8196 86.0276 86.2195 86.3948
86.553 86.6936 86.8161 86.9203 87.0058 87.0724 87.1198 87.148 87.1569
87.1465 87.1169 87.0681 87.0004 86.914 86.8092 86.6865 86.5462 86.3888
86.2149 86.0251 85.8201 85.6005 85.3673 85.1211 84.8629 84.5936 84.3143
84.026 83.7298 83.427 83.1189 82.8068 82.4923 82.1771 81.8628 81.5515
81.2454 80.9467 80.6582 80.3827 80.1233 79.8835 79.6671 79.478 79.32
79.1972 79.1132 79.071 79.0727 79.1192 79.2098 79.3416 79.5102 79.7091
79.9303 80.165 80.4041 80.6394 80.8636 81.0712 81.2586 81.4242 81.5679
81.6912 81.7964 81.8868 81.9658 82.0371 82.104 82.17 82.2381 82.3112
82.3917 82.4818 82.5834 82.6983 82.8279 82.9735 83.1365 83.3178 83.5184
83.7394 83.9816 84.2458 84.533 84.844 85.1797 85.541 85.929 86.3444
86.7885 87.2623 87.7669 88.8738;
#X array dbA-100 759 float 5;
#A 0 117.203 117.155 117.106 117.056 117.007 116.957 116.907 116.856
116.806 116.755 116.703 116.651 116.599 116.547 116.494 116.441 116.388
116.335 116.281 116.227 116.172 116.117 116.062 116.007 115.951 115.895
115.838 115.782 115.725 115.667 115.61 115.552 115.494 115.435 115.376
115.317 115.258 115.198 115.138 115.077 115.017 114.955 114.894 114.832
114.77 114.708 114.646 114.583 114.52 114.456 114.392 114.328 114.264
114.199 114.134 114.069 114.003 113.937 113.871 113.804 113.738 113.671
113.603 113.535 113.467 113.399 113.331 113.262 113.193 113.123 113.054
112.983 112.913 112.843 112.772 112.701 112.629 112.558 112.486 112.413
112.341 112.268 112.195 112.122 112.048 111.975 111.9 111.826 111.752
111.677 111.602 111.526 111.451 111.375 111.299 111.222 111.146 111.069
110.992 110.915 110.837 110.759 110.681 110.603 110.525 110.446 110.367
110.288 110.209 110.129 110.049 109.969 109.889 109.809 109.728 109.648
109.567 109.486 109.404 109.323 109.241 109.159 109.077 108.995 108.913
108.83 108.747 108.665 108.582 108.498 108.415 108.332 108.248 108.164
108.08 107.996 107.912 107.828 107.743 107.659 107.574 107.489 107.404
107.319 107.234 107.149 107.064 106.978 106.893 106.807 106.721 106.636
106.55 106.464 106.378 106.292 106.206 106.12 106.033 105.947 105.861
105.774 105.688 105.602 105.515 105.429 105.342 105.256 105.169 105.082
104.996 104.909 104.823 104.736 104.65 104.563 104.477 104.39 104.304
104.217 104.131 104.045 103.959 103.872 103.786 103.7 103.614 103.528
103.442 103.357 103.271 103.185 103.1 103.015 102.929 102.844 102.759
102.674 102.59 102.505 102.421 102.336 102.252 102.168 102.084 102.001
101.917 101.834 101.751 101.668 101.585 101.503 101.421 101.339 101.257
101.175 101.094 101.013 100.932 100.852 100.772 100.692 100.612 100.533
100.453 100.375 100.296 100.218 100.14 100.063 99.9858 99.909 99.8326
99.7566 99.681 99.6058 99.5309 99.4565 99.3825 99.3089 99.2357 99.163
99.0907 99.0189 98.9475 98.8766 98.8062 98.7363 98.6669 98.598 98.5297
98.4618 98.3945 98.3278 98.2616 98.196 98.131 98.0666 98.0027 97.9395
97.8769 97.8149 97.7536 97.6929 97.6329 97.5736 97.5149 97.457 97.3997
97.3432 97.2874 97.2323 97.178 97.1245 97.0717 97.0197 96.9685 96.918
96.8685 96.8197 96.7718 96.7247 96.6785 96.6331 96.5886 96.5451 96.5024
96.4606 96.4198 96.3799 96.3409 96.3029 96.2659 96.2298 96.1948 96.1607
96.1276 96.0956 96.0646 96.0346 96.0057 95.9778 95.951 95.9253 95.9007
95.8771 95.8547 95.8334 95.8132 95.7941 95.7762 95.7594 95.7437 95.7292
95.7159 95.7038 95.6928 95.6831 95.6745 95.6671 95.6609 95.6559 95.6521
95.6496 95.6483 95.6482 95.6493 95.6516 95.6552 95.66 95.6661 95.6734
95.6819 95.6916 95.7026 95.7148 95.7283 95.743 95.7589 95.776 95.7944
95.814 95.8348 95.8568 95.88 95.9044 95.93 95.9568 95.9848 96.0139
96.0442 96.0756 96.1082 96.1419 96.1767 96.2127 96.2497 96.2878 96.3269
96.3672 96.4084 96.4507 96.4939 96.5382 96.5834 96.6296 96.6767 96.7247
96.7735 96.8233 96.8739 96.9253 96.9776 97.0306 97.0843 97.1388 97.194
97.2498 97.3064 97.3635 97.4212 97.4795 97.5383 97.5976 97.6574 97.7177
97.7783 97.8393 97.9007 97.9624 98.0244 98.0866 98.1491 98.2117 98.2744
98.3373 98.4002 98.4632 98.5262 98.5891 98.6519 98.7147 98.7773 98.8396
98.9018 98.9637 99.0253 99.0865 99.1474 99.2078 99.2677 99.3272 99.3861
99.4444 99.5021 99.5591 99.6154 99.671 99.7257 99.7797 99.8328 99.885
99.9362 99.9865 100.036 100.084 100.131 100.177 100.222 100.265 100.308
100.349 100.388 100.427 100.464 100.499 100.533 100.566 100.597 100.626
100.654 100.681 100.705 100.728 100.75 100.769 100.787 100.803 100.817
100.829 100.84 100.848 100.855 100.86 100.862 100.863 100.862 100.859
100.854 100.846 100.837 100.826 100.812 100.797 100.779 100.759 100.737
100.713 100.687 100.659 100.628 100.596 100.561 100.524 100.485 100.444
100.401 100.355 100.308 100.258 100.206 100.152 100.096 100.038 99.9776
99.9153 99.8509 99.7845 99.716 99.6455 99.5731 99.4986 99.4222 99.3439
99.2637 99.1815 99.0975 99.0117 98.924 98.8345 98.7433 98.6504 98.5557
98.4593 98.3613 98.2618 98.1606 98.0579 97.9536 97.8479 97.7408 97.6323
97.5224 97.4112 97.2986 97.1849 97.07 96.9539 96.8367 96.7184 96.5991
96.4788 96.3576 96.2356 96.1126 95.989 95.8646 95.7395 95.6138 95.4875
95.3607 95.2335 95.1059 94.9779 94.8497 94.7212 94.5926 94.4639 94.3352
94.2066 94.0781 93.9497 93.8216 93.6939 93.5666 93.4398 93.3135 93.1879
93.0631 92.939 92.8159 92.6938 92.5727 92.4529 92.3344 92.2172 92.1016
91.9875 91.8751 91.7645 91.6559 91.5493 91.4448 91.3427 91.2429 91.1456
91.051 90.9592 90.8703 90.7845 90.7018 90.6224 90.5465 90.4743 90.4058
90.3411 90.2806 90.2242 90.1722 90.1247 90.0818 90.0438 90.0107 89.9827
89.9599 89.9426 89.9309 89.9248 89.9247 89.9305 89.9424 89.9606 89.9852
90.0164 90.0542 90.0988 90.1503 90.2088 90.2744 90.3472 90.4273 90.5147
90.6096 90.712 90.8219 90.9394 91.0645 91.1973 91.3377 91.4858 91.6416
91.805 91.9759 92.1545 92.3405 92.534 92.7348 92.9429 93.1581 93.3803
93.6094 93.8452 94.0876 94.3364 94.5914 94.8524 95.1191 95.3914 95.669
95.9515 96.2388 96.5306 96.8265 97.1262 97.4293 97.7357 98.0448 98.3563
98.6698 98.985 99.3014 99.6186 99.9361 100.254 100.571 100.887 101.201
101.514 101.825 102.132 102.437 102.737 103.034 103.325 103.612 103.893
104.168 104.436 104.698 104.952 105.198 105.436 105.666 105.886 106.097
106.298 106.49 106.671 106.841 107 107.149 107.286 107.411 107.525
107.627 107.717 107.795 107.862 107.916 107.959 107.99 108.01 108.019
108.016 108.004 107.981 107.949 107.907 107.858 107.801 107.738 107.669
107.596 107.519 107.441 107.363 107.287 107.214 107.146 107.086 107.036
106.999 106.976 106.971 106.987 107.025 107.09 107.182 107.304 107.459
107.646 107.868 108.123 108.41 108.728 109.075 109.445 109.836 110.241
110.655 111.072 111.486 111.892 112.283 112.656 113.006 113.33 113.626
113.894 114.133 114.343 114.525 114.682 114.816 114.929 115.024 115.104
115.172 115.232 115.285 115.335 115.385 115.437 115.494 115.559 115.633
115.719 115.819 115.934 116.068 116.221 116.396 116.594 116.817 117.067
117.344 117.652 117.991 118.771;
#X array dbA-120 759 float 5;
#A 0 135.482 135.449 135.417 135.384 135.351 135.317 135.284 135.25
135.216 135.182 135.148 135.113 135.078 135.043 135.008 134.972 134.937
134.901 134.865 134.828 134.792 134.755 134.718 134.681 134.643 134.606
134.568 134.53 134.491 134.453 134.414 134.375 134.336 134.296 134.257
134.217 134.177 134.136 134.096 134.055 134.014 133.972 133.931 133.889
133.847 133.805 133.763 133.72 133.677 133.634 133.591 133.547 133.504
133.46 133.415 133.371 133.326 133.281 133.236 133.191 133.145 133.1
133.054 133.007 132.961 132.914 132.867 132.82 132.773 132.725 132.678
132.63 132.581 132.533 132.484 132.435 132.386 132.337 132.287 132.237
132.187 132.137 132.087 132.036 131.985 131.934 131.883 131.831 131.779
131.727 131.675 131.623 131.57 131.517 131.464 131.411 131.358 131.304
131.25 131.196 131.142 131.087 131.033 130.978 130.923 130.867 130.812
130.756 130.7 130.644 130.588 130.531 130.475 130.418 130.361 130.303
130.246 130.188 130.13 130.072 130.014 129.956 129.897 129.838 129.779
129.72 129.661 129.601 129.542 129.482 129.422 129.362 129.301 129.241
129.18 129.119 129.058 128.997 128.935 128.874 128.812 128.75 128.688
128.626 128.563 128.501 128.438 128.375 128.312 128.249 128.186 128.122
128.059 127.995 127.931 127.867 127.803 127.739 127.674 127.61 127.545
127.48 127.415 127.35 127.285 127.219 127.154 127.088 127.023 126.957
126.891 126.825 126.759 126.692 126.626 126.56 126.493 126.426 126.359
126.293 126.226 126.158 126.091 126.024 125.957 125.889 125.822 125.754
125.686 125.619 125.551 125.483 125.415 125.347 125.279 125.211 125.143
125.074 125.006 124.938 124.869 124.801 124.732 124.664 124.595 124.526
124.458 124.389 124.321 124.252 124.183 124.114 124.046 123.977 123.908
123.839 123.771 123.702 123.633 123.565 123.496 123.427 123.359 123.29
123.222 123.153 123.085 123.016 122.948 122.88 122.811 122.743 122.675
122.607 122.539 122.472 122.404 122.336 122.269 122.202 122.134 122.067
122 121.933 121.867 121.8 121.734 121.668 121.602 121.536 121.47 121.405
121.34 121.275 121.21 121.145 121.081 121.017 120.953 120.89 120.826
120.763 120.701 120.638 120.576 120.514 120.453 120.392 120.331 120.271
120.211 120.151 120.092 120.033 119.975 119.917 119.86 119.803 119.746
119.69 119.634 119.579 119.525 119.471 119.417 119.364 119.312 119.26
119.209 119.158 119.108 119.059 119.01 118.962 118.915 118.868 118.822
118.777 118.732 118.689 118.646 118.604 118.562 118.522 118.482 118.443
118.405 118.368 118.331 118.296 118.261 118.228 118.195 118.163 118.133
118.103 118.074 118.047 118.02 117.994 117.97 117.946 117.923 117.902
117.882 117.863 117.845 117.828 117.812 117.797 117.784 117.771 117.76
117.75 117.742 117.734 117.728 117.723 117.719 117.717 117.715 117.715
117.716 117.719 117.723 117.727 117.734 117.741 117.75 117.76 117.771
117.784 117.797 117.812 117.829 117.846 117.865 117.885 117.906 117.928
117.952 117.977 118.003 118.03 118.058 118.088 118.118 118.15 118.182
118.216 118.251 118.287 118.324 118.361 118.4 118.44 118.48 118.522
118.564 118.607 118.651 118.696 118.741 118.787 118.834 118.881 118.929
118.978 119.027 119.076 119.126 119.176 119.227 119.278 119.329 119.38
119.432 119.484 119.535 119.587 119.639 119.691 119.742 119.794 119.845
119.896 119.946 119.996 120.046 120.096 120.144 120.193 120.24 120.287
120.333 120.378 120.423 120.466 120.509 120.551 120.591 120.63 120.669
120.706 120.741 120.776 120.809 120.84 120.87 120.899 120.926 120.951
120.974 120.996 121.016 121.035 121.051 121.065 121.078 121.088 121.097
121.103 121.107 121.109 121.109 121.107 121.102 121.095 121.086 121.074
121.06 121.044 121.025 121.003 120.979 120.953 120.924 120.893 120.858
120.822 120.783 120.741 120.696 120.649 120.6 120.547 120.492 120.435
120.375 120.312 120.246 120.178 120.107 120.034 119.958 119.88 119.799
119.715 119.629 119.541 119.45 119.356 119.26 119.162 119.061 118.958
118.853 118.745 118.635 118.523 118.408 118.292 118.173 118.053 117.93
117.805 117.679 117.55 117.42 117.288 117.154 117.019 116.881 116.743
116.602 116.46 116.317 116.173 116.027 115.879 115.731 115.581 115.43
115.279 115.126 114.972 114.817 114.662 114.506 114.349 114.192 114.033
113.875 113.716 113.556 113.397 113.237 113.076 112.916 112.756 112.595
112.435 112.274 112.114 111.954 111.795 111.636 111.477 111.319 111.161
111.004 110.848 110.693 110.538 110.384 110.232 110.081 109.93 109.781
109.634 109.488 109.343 109.2 109.059 108.919 108.782 108.646 108.513
108.381 108.253 108.126 108.002 107.881 107.763 107.648 107.535 107.426
107.321 107.219 107.12 107.026 106.935 106.849 106.766 106.689 106.616
106.548 106.485 106.427 106.375 106.328 106.287 106.252 106.223 106.201
106.185 106.176 106.175 106.18 106.193 106.214 106.243 106.279 106.324
106.378 106.44 106.511 106.591 106.68 106.779 106.887 107.005 107.133
107.271 107.419 107.577 107.746 107.925 108.114 108.314 108.524 108.745
108.976 109.218 109.47 109.732 110.005 110.288 110.581 110.884 111.197
111.519 111.85 112.191 112.54 112.897 113.263 113.636 114.017 114.405
114.799 115.2 115.606 116.017 116.433 116.853 117.276 117.703 118.131
118.562 118.993 119.425 119.857 120.288 120.718 121.145 121.57 121.991
122.408 122.82 123.226 123.627 124.021 124.407 124.786 125.156 125.517
125.868 126.21 126.541 126.861 127.17 127.467 127.753 128.027 128.288
128.537 128.774 128.999 129.211 129.411 129.6 129.776 129.942 130.097
130.241 130.376 130.502 130.62 130.73 130.833 130.931 131.024 131.114
131.202 131.288 131.375 131.463 131.554 131.649 131.751 131.859 131.977
132.105 132.244 132.397 132.564 132.748 132.948 133.167 133.406 133.666
133.946 134.249 134.574 134.923 135.294 135.689 136.107 136.547 137.009
137.492 137.996 138.519 139.059 139.616 140.187 140.772 141.368 141.974
142.588 143.208 143.833 144.46 145.087 145.715 146.34 146.961 147.577
148.187 148.791 149.386 149.973 150.552 151.12 151.68 152.231 152.772
153.306 153.831 154.349 154.861 155.368 155.87 156.37 156.868 157.365
157.864 158.366 158.873 159.385 159.906 160.436 160.978 161.533 162.103
162.691 163.298 164.578;
#X coords 0 175 758 -10 700 400 1;
#X restore 41 125 graph;
#X obj 852 64 nbx 5 14 0 120 0 0 empty empty empty 0 -8 0 10 -262144
-1 -1 0 256;
#X text 752 439 0 Phon;
#X text 748 404 20 Phon;
#X text 750 371 40 Phon;
#X text 748 338 60 Phon;
#X text 748 301 80 Phon;
#X text 746 240 100 Phon;
#X text 746 140 120 Phon;
#X text 448 105 1Khz;
#X text 448 527 1Khz;
#X obj 872 284 tabwrite dbA-0;
#X text 660 527 10Khz;
#X text 660 106 10Khz;
#X text 722 528 20Khz;
#X text 722 105 20Khz;
#X text 383 527 500Hz;
#X text 383 104 500Hz;
#X text 220 526 100Hz;
#X text 220 105 100Hz;
#X text 208 562 -- Frequencies from 30Hz to 20Khz on a logarithmic
scale --;
#X text 32 527 30Hz;
#X obj 872 251 phon2db;
#X obj 852 179 t b f;
#X obj 872 222 f;
#X obj 932 212 expr pow(10 \, 1 + $f1/230.2615) + 20, f 18;
#N canvas 64 23 450 300 init 0;
#X obj 77 93 loadbang;
#X msg 77 120 \; dbA-0 yticks 0 5 5 \; dbA-0 ylabel -15 0 25 50 75
100 125 150 175;
#X connect 0 0 1 0;
#X restore 888 424 pd init;
#X text 851 45 Phon;
#X text 573 43 Equal Loudness curves;
#X msg 852 110 760;
#X obj 852 131 until;
#X obj 899 155 + 1;
#X obj 852 89 trigger bang bang float;
#X msg 919 126 0;
#X obj 852 155 float;
#X connect 3 0 34 0;
#X connect 24 0 13 0;
#X connect 25 0 26 0;
#X connect 25 1 13 1;
#X connect 25 1 27 0;
#X connect 26 0 24 0;
#X connect 27 0 24 1;
#X connect 31 0 32 0;
#X connect 32 0 36 0;
#X connect 33 0 36 1;
#X connect 34 0 31 0;
#X connect 34 1 35 0;
#X connect 34 2 26 1;
#X connect 35 0 36 1;
#X connect 36 0 33 0;
#X connect 36 0 25 0;
#X restore 228 435 pd equal-loudness-curves;
#X text 32 330 The loudness curves shows this variation and uses 1Khz
as the reference value. Therefore \, 60 phons means "as loud as a 60
dB \, 1000 Hz tone"., f 61;
#X connect 0 0 8 0;
#X connect 1 0 8 1;
#X connect 8 0 2 0;
